Frequency(Hz) Ampltude (m) Dimensionless Acceleration b/g
    1.0000    3.6800    0.3751
    2.0000    1.8400    0.7502
    3.0000    1.2267    1.1254
    4.0000    0.9200    1.5005
    5.0000    0.7360    1.8756
    6.0000    0.6133    2.2507
    7.0000    0.5257    2.6259
    8.0000    0.4600    3.0010
    9.0000    0.4089    3.3761
   10.0000    0.3680    3.7512
   11.0000    0.3345    4.1264
   12.0000    0.3067    4.5015
   13.0000    0.2831    4.8766
   14.0000    0.2629    5.2517
   15.0000    0.2453    5.6268
   16.0000    0.2300    6.0020
   17.0000    0.2165    6.3771
   18.0000    0.2044    6.7522
   19.0000    0.1937    7.1273
   20.0000    0.1840    7.5025
   21.0000    0.1752    7.8776
   22.0000    0.1673    8.2527
   23.0000    0.1600    8.6278
   24.0000    0.1533    9.0029
   25.0000    0.1472    9.3781
   26.0000    0.1415    9.7532
   27.0000    0.1363   10.1283
   28.0000    0.1314   10.5034
   29.0000    0.1269   10.8786
   30.0000    0.1227   11.2537
   31.0000    0.1187   11.6288
   32.0000    0.1150   12.0039
   33.0000    0.1115   12.3791
   34.0000    0.1082   12.7542
   35.0000    0.1051   13.1293
   36.0000    0.1022   13.5044
   37.0000    0.0995   13.8795
   38.0000    0.0968   14.2547
   39.0000    0.0944   14.6298
   40.0000    0.0920   15.0049
   41.0000    0.0898   15.3800
   42.0000    0.0876   15.7552
   43.0000    0.0856   16.1303
   44.0000    0.0836   16.5054
   45.0000    0.0818   16.8805
   46.0000    0.0800   17.2556
   47.0000    0.0783   17.6308
   48.0000    0.0767   18.0059
   49.0000    0.0751   18.3810
   50.0000    0.0736   18.7561
   51.0000    0.0722   19.1313
   52.0000    0.0708   19.5064
   53.0000    0.0694   19.8815
   54.0000    0.0681   20.2566
   55.0000    0.0669   20.6318
   56.0000    0.0657   21.0069
   57.0000    0.0646   21.3820
   58.0000    0.0634   21.7571
   59.0000    0.0624   22.1322
   60.0000    0.0613   22.5074
   61.0000    0.0603   22.8825
   62.0000    0.0594   23.2576
   63.0000    0.0584   23.6327
   64.0000    0.0575   24.0079
   65.0000    0.0566   24.3830
   66.0000    0.0558   24.7581
   67.0000    0.0549   25.1332
   68.0000    0.0541   25.5083
   69.0000    0.0533   25.8835
   70.0000    0.0526   26.2586
   71.0000    0.0518   26.6337
   72.0000    0.0511   27.0088
   73.0000    0.0504   27.3840
   74.0000    0.0497   27.7591
   75.0000    0.0491   28.1342
   76.0000    0.0484   28.5093
   77.0000    0.0478   28.8845
   78.0000    0.0472   29.2596
   79.0000    0.0466   29.6347
   80.0000    0.0460   30.0098
   81.0000    0.0454   30.3849
   82.0000    0.0449   30.7601
   83.0000    0.0443   31.1352
   84.0000    0.0438   31.5103
   85.0000    0.0433   31.8854
   86.0000    0.0428   32.2606
   87.0000    0.0423   32.6357
   88.0000    0.0418   33.0108
   89.0000    0.0413   33.3859
   90.0000    0.0409   33.7611
   91.0000    0.0404   34.1362
   92.0000    0.0400   34.5113
   93.0000    0.0396   34.8864
   94.0000    0.0391   35.2615
   95.0000    0.0387   35.6367
   96.0000    0.0383   36.0118
   97.0000    0.0379   36.3869
   98.0000    0.0376   36.7620
   99.0000    0.0372   37.1372
  100.0000    0.0368   37.5123
  101.0000    0.0364   37.8874
  102.0000    0.0361   38.2625
  103.0000    0.0357   38.6376
  104.0000    0.0354   39.0128
  105.0000    0.0350   39.3879
  106.0000    0.0347   39.7630
  107.0000    0.0344   40.1381
  108.0000    0.0341   40.5133
  109.0000    0.0338   40.8884
  110.0000    0.0335   41.2635
  111.0000    0.0332   41.6386
  112.0000    0.0329   42.0138
  113.0000    0.0326   42.3889
  114.0000    0.0323   42.7640
  115.0000    0.0320   43.1391
  116.0000    0.0317   43.5142
  117.0000    0.0315   43.8894
  118.0000    0.0312   44.2645
  119.0000    0.0309   44.6396
  120.0000    0.0307   45.0147
  121.0000    0.0304   45.3899
  122.0000    0.0302   45.7650
  123.0000    0.0299   46.1401
  124.0000    0.0297   46.5152
  125.0000    0.0294   46.8903
  126.0000    0.0292   47.2655
  127.0000    0.0290   47.6406
  128.0000    0.0287   48.0157
  129.0000    0.0285   48.3908
  130.0000    0.0283   48.7660
  131.0000    0.0281   49.1411
  132.0000    0.0279   49.5162
  133.0000    0.0277   49.8913
  134.0000    0.0275   50.2665
  135.0000    0.0273   50.6416
  136.0000    0.0271   51.0167
  137.0000    0.0269   51.3918
  138.0000    0.0267   51.7669
  139.0000    0.0265   52.1421
  140.0000    0.0263   52.5172
  141.0000    0.0261   52.8923
  142.0000    0.0259   53.2674
  143.0000    0.0257   53.6426
  144.0000    0.0256   54.0177
  145.0000    0.0254   54.3928
  146.0000    0.0252   54.7679
  147.0000    0.0250   55.1430
  148.0000    0.0249   55.5182
  149.0000    0.0247   55.8933
  150.0000    0.0245   56.2684
  151.0000    0.0244   56.6435
  152.0000    0.0242   57.0187
  153.0000    0.0241   57.3938
  154.0000    0.0239   57.7689
  155.0000    0.0237   58.1440
  156.0000    0.0236   58.5192
  157.0000    0.0234   58.8943
  158.0000    0.0233   59.2694
  159.0000    0.0231   59.6445
  160.0000    0.0230   60.0196
  161.0000    0.0229   60.3948
  162.0000    0.0227   60.7699
  163.0000    0.0226   61.1450
  164.0000    0.0224   61.5201
  165.0000    0.0223   61.8953
  166.0000    0.0222   62.2704
  167.0000    0.0220   62.6455
  168.0000    0.0219   63.0206
  169.0000    0.0218   63.3958
  170.0000    0.0216   63.7709
  171.0000    0.0215   64.1460
  172.0000    0.0214   64.5211
  173.0000    0.0213   64.8962
  174.0000    0.0211   65.2714
  175.0000    0.0210   65.6465
  176.0000    0.0209   66.0216
  177.0000    0.0208   66.3967
  178.0000    0.0207   66.7719
  179.0000    0.0206   67.1470
  180.0000    0.0204   67.5221
  181.0000    0.0203   67.8972
  182.0000    0.0202   68.2723
  183.0000    0.0201   68.6475
  184.0000    0.0200   69.0226
  185.0000    0.0199   69.3977
  186.0000    0.0198   69.7728
  187.0000    0.0197   70.1480
  188.0000    0.0196   70.5231
  189.0000    0.0195   70.8982
  190.0000    0.0194   71.2733
  191.0000    0.0193   71.6485
  192.0000    0.0192   72.0236
  193.0000    0.0191   72.3987
  194.0000    0.0190   72.7738
  195.0000    0.0189   73.1489
  196.0000    0.0188   73.5241
  197.0000    0.0187   73.8992
  198.0000    0.0186   74.2743
  199.0000    0.0185   74.6494
  200.0000    0.0184   75.0246
  201.0000    0.0183   75.3997
  202.0000    0.0182   75.7748
  203.0000    0.0181   76.1499
  204.0000    0.0180   76.5250
  205.0000    0.0180   76.9002
  206.0000    0.0179   77.2753
  207.0000    0.0178   77.6504
  208.0000    0.0177   78.0255
  209.0000    0.0176   78.4007
  210.0000    0.0175   78.7758
  211.0000    0.0174   79.1509
  212.0000    0.0174   79.5260
  213.0000    0.0173   79.9012
  214.0000    0.0172   80.2763
  215.0000    0.0171   80.6514
  216.0000    0.0170   81.0265
  217.0000    0.0170   81.4016
  218.0000    0.0169   81.7768
  219.0000    0.0168   82.1519
  220.0000    0.0167   82.5270
  221.0000    0.0167   82.9021
  222.0000    0.0166   83.2773
  223.0000    0.0165   83.6524
  224.0000    0.0164   84.0275
  225.0000    0.0164   84.4026
  226.0000    0.0163   84.7777
  227.0000    0.0162   85.1529
  228.0000    0.0161   85.5280
  229.0000    0.0161   85.9031
  230.0000    0.0160   86.2782
  231.0000    0.0159   86.6534
  232.0000    0.0159   87.0285
  233.0000    0.0158   87.4036
  234.0000    0.0157   87.7787
  235.0000    0.0157   88.1539
  236.0000    0.0156   88.5290
  237.0000    0.0155   88.9041
  238.0000    0.0155   89.2792
  239.0000    0.0154   89.6543
  240.0000    0.0153   90.0295
  241.0000    0.0153   90.4046
  242.0000    0.0152   90.7797
  243.0000    0.0151   91.1548
  244.0000    0.0151   91.5300
  245.0000    0.0150   91.9051
  246.0000    0.0150   92.2802
  247.0000    0.0149   92.6553
  248.0000    0.0148   93.0305
  249.0000    0.0148   93.4056
  250.0000    0.0147   93.7807
  251.0000    0.0147   94.1558
  252.0000    0.0146   94.5309
  253.0000    0.0145   94.9061
  254.0000    0.0145   95.2812
  255.0000    0.0144   95.6563
  256.0000    0.0144   96.0314
  257.0000    0.0143   96.4066
  258.0000    0.0143   96.7817
  259.0000    0.0142   97.1568
  260.0000    0.0142   97.5319
  261.0000    0.0141   97.9070
  262.0000    0.0140   98.2822
  263.0000    0.0140   98.6573
  264.0000    0.0139   99.0324
  265.0000    0.0139   99.4075
  266.0000    0.0138   99.7827
  267.0000    0.0138  100.1578
  268.0000    0.0137  100.5329
  269.0000    0.0137  100.9080
  270.0000    0.0136  101.2832
  271.0000    0.0136  101.6583
  272.0000    0.0135  102.0334
  273.0000    0.0135  102.4085
  274.0000    0.0134  102.7836
  275.0000    0.0134  103.1588
  276.0000    0.0133  103.5339
  277.0000    0.0133  103.9090
  278.0000    0.0132  104.2841
  279.0000    0.0132  104.6593
  280.0000    0.0131  105.0344
  281.0000    0.0131  105.4095
  282.0000    0.0130  105.7846
  283.0000    0.0130  106.1597
  284.0000    0.0130  106.5349
  285.0000    0.0129  106.9100
  286.0000    0.0129  107.2851
  287.0000    0.0128  107.6602
  288.0000    0.0128  108.0354
  289.0000    0.0127  108.4105
  290.0000    0.0127  108.7856
  291.0000    0.0126  109.1607
  292.0000    0.0126  109.5359
  293.0000    0.0126  109.9110
  294.0000    0.0125  110.2861
  295.0000    0.0125  110.6612
  296.0000    0.0124  111.0363
  297.0000    0.0124  111.4115
  298.0000    0.0123  111.7866
  299.0000    0.0123  112.1617
  300.0000    0.0123  112.5368